#Noise/Signal corrected for 16_11_18-6.felix data file!
#Wavelength(cm-1)	#Counts	SA
550.128628	11231.0	548.245614
552.081674	11445.0	555.864369
554.113076	11710.0	551.87638
556.096328	11511.0	558.347292
558.09685	12356.5	561.167228
560.089825	13034.5	564.334086
562.11459	13557.0	565.291125
564.115348	14043.0	566.893424
566.08768	15111.5	570.776256
568.089697	16831.5	570.450656
570.09234	18050.5	572.08238
572.091446	19381.5	574.052813
574.061678	20887.0	575.705239
576.063811	21840.5	578.703704
578.085373	23624.5	582.411182
580.09691	23427.5	582.411182
582.130085	23238.5	583.090379
584.070425	22937.5	586.166471
586.095803	23325.0	586.510264
588.085402	23243.0	590.667454
590.096563	22936.0	586.85446
592.08447	22610.5	595.238095
594.089593	22079.0	597.728631
596.094911	21611.0	598.444045
598.072353	22461.5	594.883998
600.077902	21371.0	603.136309
602.102929	21397.0	607.164542
604.089079	21507.0	607.164542
606.112034	21366.0	602.772755
608.087158	21460.5	610.128127
610.094775	21783.0	605.693519
612.087067	22320.0	615.763547
614.081214	22230.0	616.522811
616.106047	22141.0	620.347395
618.082231	21606.5	613.496933
620.082359	21864.5	623.441397
622.09981	21989.0	624.219725
624.094945	22064.0	626.959248
626.098568	22393.5	621.50404
628.070637	22637.0	632.111252
630.104595	22848.5	634.115409
632.091354	23200.5	635.324015
634.106603	23220.5	637.755102
636.099013	23209.5	641.436818
638.093112	22498.5	641.436818
640.091067	22842.5	645.577792
642.08166	22129.0	645.577792
644.08965	22035.0	638.162093
646.096964	23122.0	650.195059
648.099103	23023.0	652.315721
650.102742	23437.5	654.022237
652.062425	23550.0	647.249191
654.098684	23355.0	657.030223
656.10224	23807.5	659.630607
658.086664	23568.5	648.508431
660.07472	22906.0	664.010624
662.093981	22429.5	663.570007
664.07787	22109.0	668.896321
666.092983	22780.5	660.938533
668.097866	22975.5	670.690812
670.099452	22921.0	673.854447
672.088404	22665.0	673.854447
674.0832	23319.0	677.04807
676.088455	23833.5	678.886626
678.11354	23960.5	681.19891
680.088531	24062.0	683.060109
682.083295	24360.0	676.589986
684.081465	23585.0	687.757909
686.069019	23831.5	688.705234
688.081033	23692.5	690.131125
690.089453	23449.5	692.520776
692.091813	24059.5	685.40096
694.085737	24457.0	698.324022
696.118464	24157.5	698.324022
698.088271	23832.5	702.247191
700.065974	24074.5	702.740689
702.087299	24244.0	705.716302
704.054842	24108.5	706.713781
706.094663	23962.0	709.219858
708.066112	23235.0	711.743772
710.074213	23461.5	712.250712
712.061539	24297.5	714.796283
714.085566	23604.0	717.360115
716.062316	23802.0	717.87509
718.090311	23959.5	719.942405
720.063556	23824.0	722.021661
722.088134	24003.0	723.589001
724.074739	23833.0	725.689405
726.08617	24061.0	727.802038
728.076365	23836.5	729.394602
730.086561	23401.0	732.600733
732.082751	23466.5	733.675715
734.081857	23276.0	737.463127
736.086385	23605.0	740.19245
738.096333	23514.0	741.289844
740.070018	23310.0	741.289844
766.069026	20037.5	769.230769
768.079064	21020.0	771.010023
770.071747	21613.0	771.604938
772.074617	22155.0	772.797527
774.060011	22353.5	774.593338
776.080636	22285.0	777.000777
778.06619	23200.0	778.210117
780.084444	22861.5	783.085356
782.034845	22388.5	786.163522
784.0809	23062.0	786.163522
786.0665	22101.0	788.643533
788.077336	21401.0	789.889415
790.095739	20490.0	791.765637
792.078706	19931.0	793.650794
794.069129	20660.0	794.91256
796.097467	20956.0	796.812749
798.077527	20786.0	799.360512
800.087946	20236.0	801.282051
802.090505	19947.5	803.212851
804.085332	19289.5	805.152979
806.049238	18890.0	807.754443
808.09217	18320.5	808.407437
810.053017	16921.0	811.030008
812.087896	16084.5	813.66965
814.058398	15063.0	814.995925
816.085103	14971.0	816.993464
818.090936	14282.5	818.330606
820.078473	13509.5	821.018062
822.096575	12403.5	822.368421
824.093732	12811.5	808.407437
826.093041	11960.0	827.81457
828.079034	11950.0	828.500414
830.077562	11451.0	829.875519
832.075582	12005.5	832.639467
834.065434	11077.0	834.724541
836.072935	10556.5	837.520938
838.074811	10559.5	837.520938
840.078746	10357.0	842.459983
842.08484	10008.5	843.17032
844.077312	9992.0	844.594595
846.090116	10053.0	846.023689
848.07622	9684.0	848.176421
850.108814	10028.0	849.617672
852.085898	9674.0	852.514919
854.08584	9712.0	854.700855
856.079948	9552.5	856.898029
858.104891	9526.5	858.369099
860.068713	9590.5	859.845228
862.084424	9125.0	862.81277
864.083621	9120.0	864.304235
866.087387	8811.0	867.302689
868.079895	9047.5	867.302689
870.105894	8826.5	870.322019
872.083643	9070.5	871.839582
874.092255	8731.0	873.362445
876.089494	8768.0	876.424189
878.093876	9255.0	877.963126
880.081425	9120.5	879.507476
882.102735	9153.5	881.834215
884.075276	9684.5	883.392226
886.094737	9962.5	887.311446
888.092132	10408.5	888.888889
890.096493	10382.0	889.679715
892.059944	10408.0	891.265597
894.091788	10032.5	893.655049
896.069231	9669.5	895.255148
898.07512	9855.5	896.057348
900.074616	10004.0	899.280576
902.083768	9978.0	900.900901
904.062513	9760.5	877.192982
906.072288	10365.0	904.977376
908.09176	10271.0	907.441016
910.08058	10470.5	909.918107
912.092523	10121.0	911.577028
914.079206	10333.5	912.408759
916.099654	9546.0	914.076782
918.081262	9155.0	917.431193
942.078294	9267.0	939.849624
944.065088	9650.5	942.507069
946.091337	9429.5	944.287063
948.06446	9710.0	946.969697
950.079769	10036.0	948.766603
952.050092	10485.0	949.667616
954.092686	10326.5	951.474786
956.079158	10493.0	954.198473
958.075112	10231.0	955.109838
960.061444	10498.0	957.854406
962.073615	10473.5	959.692898
964.051484	9951.5	961.538462
966.055141	10003.0	963.391137
968.046339	9378.5	965.250965
970.057996	9109.0	967.117988
972.059794	9214.5	969.932105
974.049092	9225.5	972.762646
976.086277	9561.0	973.709834
978.05585	9723.5	975.609756
980.081606	9490.0	977.517107
982.058865	9340.5	979.431929
984.095153	9629.5	980.392157
986.060944	9834.5	982.318271
988.0718	9549.0	962.463908
990.081071	9632.5	987.166831
992.052765	9950.5	990.09901
994.077979	9480.5	993.048659
996.065541	9732.5	992.063492
998.076208	9567.5	994.035785
1000.054703	9596.5	997.008973
1002.084034	9764.5	1000.0
1004.059009	10081.0	1001.001001
1006.076501	9967.5	1003.009027
1008.075491	9654.0	1004.016064
1010.086624	9972.0	1006.036217
1012.051407	9917.0	1009.081736
1014.064363	9749.0	1011.122346
1016.075431	9552.5	1011.122346
1018.065263	9636.0	1016.260163
1020.086524	9392.5	1016.260163
1022.053043	9323.0	1019.367992
1024.081586	9335.5	1020.408163
1026.049762	8708.5	1022.494888
1028.082801	8767.0	1025.641026
1030.03871	8432.0	1027.749229
1032.073437	8584.5	1028.806584
1034.050454	8323.5	1029.866117
1036.072845	8313.5	1031.991744
1038.104454	8794.0	1034.126163
1040.04463	8489.5	1036.26943
1042.069383	8490.0	1037.344398
1044.047421	8376.5	1041.666667
1046.08485	8649.0	1040.582726
1048.061479	8618.5	1043.841336
1050.089147	8276.0	1048.218029
1052.050404	8319.5	1048.218029
1054.076663	8106.5	1049.317943
1056.064455	8403.0	1053.74078
1058.069611	8125.0	1053.74078
1060.067113	8271.5	1055.966209
1062.037204	8444.0	1057.082452
1064.044294	8273.0	1061.571125
1066.060348	8109.0	1061.571125
1068.077098	8217.0	1066.098081
1070.046759	8087.5	1066.098081
1072.045074	8020.5	1067.235859
1074.04383	7879.0	1070.663812
1076.076916	7783.0	1071.811361
1078.026246	7938.0	1074.113856
1080.057653	7935.5	1077.586207
1082.05294	8110.0	1078.748652
1084.057258	7892.0	1079.913607
1086.036696	7700.0	1082.251082
1088.044685	7880.0	1083.423619
1090.070094	7570.5	1086.956522
1092.059407	7478.0	1088.139282
1094.0773	7427.0	1089.324619
1096.016768	7577.5	1092.896175
1098.066448	7287.5	1094.091904
1100.057368	7382.0	1096.491228
1102.037425	7341.5	1097.694841
1104.060215	7273.0	1098.901099
1106.035392	7465.5	1102.535832
1108.073021	7481.5	1103.752759
1110.054463	7185.0	1106.19469
1112.044858	7149.0	1108.64745
1114.060897	7318.0	1109.877913
1116.046143	6917.0	1111.111111
1118.068479	7168.0	1112.347052
1120.060017	7047.0	1116.071429
1122.06307	6604.0	1119.820829
1124.018465	6602.0	1119.820829
1126.072866	6925.5	1122.334456
1128.062634	6855.5	1123.595506
1130.072344	6732.5	1126.126126
1132.06539	7248.0	1127.395716
1134.081298	6884.5	1129.943503
1136.052126	7064.5	1131.221719
1138.071131	7129.5	1132.502831
1140.064831	7083.0	1135.07378
1142.047529	7013.5	1137.656428
1144.078234	7186.5	1138.952164
1146.047083	7144.0	1140.250855
1148.080977	7190.0	1144.16476
1150.038641	7269.0	1145.475372
1152.069884	7035.5	1146.788991
1154.067291	7329.0	1148.105626
1156.050787	7527.5	1150.747986
1158.053988	7164.5	1153.402537
1160.045975	7183.0	1156.069364
1162.086014	7299.5	1157.407407
1164.058303	6967.5	1158.748552
1166.061772	7045.5	1160.092807
1168.039678	6909.5	1162.790698
1170.054286	7173.0	1165.501166
1172.071871	7013.0	1166.861144
1174.038395	6898.5	1169.590643
1176.05302	6926.5	1172.332943
1178.064718	7154.0	1173.70892
1180.087626	7056.0	1175.088132
1182.037149	7088.5	1176.470588
1184.082427	7005.0	1177.856302
1186.043072	6751.5	1182.033097
1188.065549	6743.0	1183.431953
1190.079497	6999.0	1184.834123
1192.062343	6844.5	1187.648456
1194.050524	7076.5	1189.060642
1196.07539	6540.0	1193.317422
1198.088761	6814.0	1194.74313
1200.037057	6626.0	1197.60479
1202.075359	6730.0	1199.040767
1204.043032	6761.0	1201.923077
1206.080867	6688.0	1201.923077
1208.059351	6892.5	1204.819277
1210.062932	6813.0	1204.819277
1212.052162	6723.5	1207.729469
1214.060914	7055.0	1209.189843
1216.09763	6650.0	1210.653753
1218.049348	6793.0	1215.066829
1220.068517	6775.5	1215.066829
1222.073184	6582.0	1218.026797
1224.072013	6470.5	1221.001221
1226.06762	5951.0	1221.001221
1228.09659	5884.0	1222.493888
1230.049217	5288.5	1223.990208
1232.080468	4836.0	1226.993865
1234.01823	4710.0	1230.0123
1236.076831	4736.0	1230.0123
1238.058922	4286.0	1233.045623
1240.051839	4274.0	1236.093943
1242.075249	4006.0	1236.093943
1243.991366	4490.5	1236.093943
1246.053282	4302.0	1239.157373
1248.010671	4333.5	1242.236025
1250.06891	4097.0	1243.781095
1252.045059	5029.0	1245.330012
1254.079678	4485.5	1248.439451
1256.018211	4406.5	1251.564456
1258.088408	3176.0	1254.705144
1259.966969	3504.0	1253.132832
1262.069645	3351.0	1256.281407
1264.000544	3216.5	1257.861635
1266.034645	3207.5	1261.034048
1267.972882	3538.0	1262.626263
1270.008508	4044.5	1264.222503
1271.984827	3485.5	1265.822785
1273.999767	3597.5	1269.035533
1275.997166	2983.0	1272.264631
1277.988262	3228.0	1272.264631
1280.009667	3312.5	1273.88535
1281.982745	3291.0	1278.772379
1284.053088	2855.5	1277.139208
1285.971682	3027.0	1280.409731
1288.051621	2419.5	1283.697047
1289.966051	1791.0	1285.347044
1292.05026	1754.0	1285.347044
1293.999543	1371.5	1288.659794
1296.070948	1338.5	1290.322581
1298.054968	1252.5	1293.661061
1300.063326	1369.0	1293.661061
1302.029252	1505.0	1297.016861
1304.061159	1555.5	1300.390117
1306.064278	1654.5	1298.701299
1308.069454	1426.0	1300.390117
1310.07376	1599.0	1303.780965
1312.085594	1504.5	1305.483029
1314.029711	2225.0	1308.900524
1316.04541	2267.5	1308.900524
1318.071298	3118.5	1312.335958
1320.018396	3350.5	1315.789474
1322.072973	3571.5	1319.261214
1324.023857	4554.0	1319.261214
1326.098669	5003.5	1322.751323
1328.022836	4911.0	1322.751323
1330.101187	4494.0	1322.751323
1332.051012	4874.0	1324.503311
1334.105158	5445.5	1328.021248
1336.058715	5174.5	1329.787234
1338.069385	6052.0	1331.557923
1340.081807	5903.0	1335.113485
1342.070931	6313.5	1336.898396
1344.053504	6373.5	1340.482574
1346.07655	6418.5	1340.482574
1348.073529	6799.0	1342.281879
1350.036525	6746.5	1345.89502
1352.05899	6790.0	1349.527665
1354.060937	6680.5	1349.527665
1356.081142	7242.0	1349.527665
1358.080825	6825.5	1351.351351
1360.065697	7056.5	1355.01355
1362.057677	7007.0	1356.852103
1364.056617	7139.5	1356.852103
1366.054529	7209.5	1360.544218
1368.029105	7098.5	1362.39782
1370.04919	6884.0	1362.39782
1372.054354	7555.0	1366.120219
1374.052745	7092.0	1367.989056
1376.052611	6965.0	1367.989056
1378.064954	6997.0	1367.989056
1380.043195	6930.5	1375.515818
1382.017383	6990.0	1373.626374
1406.022642	6969.0	1398.601399
1408.027899	7173.5	1402.524544
1410.02616	8083.0	1404.494382
1412.014948	7707.5	1406.469761
1414.026549	7873.5	1408.450704
1416.012209	7648.0	1410.437236
1418.023361	7610.0	1412.429379
1419.992644	7984.0	1414.427157
1422.022204	7717.0	1416.430595
1423.988424	7505.5	1418.439716
1426.047121	7318.5	1418.439716
1427.96434	7627.0	1420.454545
1430.046624	7621.5	1422.475107
1431.990408	7527.5	1426.533524
1433.980608	7357.5	1426.533524
1435.977379	7628.5	1430.615165
1438.076912	7797.5	1432.664756
1440.064791	7475.0	1436.781609
1442.059214	7350.5	1436.781609
1444.04916	7225.0	1436.781609
1446.040214	7030.0	1440.92219
1448.058573	7026.5	1440.92219
1452.055733	6978.0	1447.178003
1454.055623	7096.0	1447.178003
1456.035164	7228.5	1451.37881
1458.026054	7450.0	1451.37881
1460.05757	7092.5	1451.37881
1462.015877	7303.0	1453.488372
1464.070109	7247.0	1457.725948
1466.024587	7541.5	1459.854015
1468.059287	7370.5	1461.988304
1470.028544	7308.0	1464.128843
1472.054011	7524.5	1468.428781
1474.048564	7267.5	1466.27566
1476.022821	7240.0	1470.588235
1478.031865	7188.5	1474.926254
1480.025794	7354.5	1472.75405
1482.030821	7289.5	1477.104874
1484.039085	7196.5	1479.289941
1486.048163	7571.5	1479.289941
1488.047187	7325.5	1479.289941
1490.05204	7393.5	1488.095238
1492.046942	7141.5	1485.884101
1494.039827	7265.5	1492.537313
1496.035804	7406.5	1494.768311
1498.027024	7374.5	1494.768311
1500.013875	7482.0	1494.768311
1502.086548	7434.0	1497.005988
1504.047995	7378.0	1499.250375
1506.049046	7303.5	1503.759398
1508.011537	7439.0	1501.501502
1510.067621	7522.5	1503.759398
1512.043807	7433.0	1508.295626
1514.079959	7275.5	1508.295626
1516.023458	7182.0	1515.151515
1518.077955	7202.0	1515.151515
1520.009558	7099.5	1517.450683
1522.092719	7418.5	1515.151515
1524.035255	7240.5	1519.756839
1526.070084	7378.0	1519.756839
1528.033532	7324.0	1522.070015
1530.053541	7245.0	1522.070015
1532.055895	7298.0	1529.051988
1534.06585	7429.5	1533.742331
1536.037907	7103.5	1531.393568
1538.048395	7353.0	1536.09831
1540.038538	7098.5	1536.09831
1542.061659	7212.0	1540.832049
1544.014051	7346.0	1540.832049
1546.03473	7289.5	1540.832049
1548.027874	7429.5	1547.987616
1550.051152	7220.0	1545.595054
1552.013963	7331.5	1552.795031
1554.024496	7328.5	1555.209953
1556.025233	7154.5	1552.795031
1558.020691	7198.5	1552.795031
1560.040985	7332.0	1564.945227
1562.043834	7331.5	1560.062402
1564.014161	7321.0	1562.5
1566.021591	7140.0	1562.5
1568.021395	7220.5	1564.945227
1570.008812	7304.0	1569.858713
1572.040567	7512.5	1572.327044
1574.010195	7167.0	1569.858713
1576.021526	6968.0	1572.327044
1578.022813	7158.5	1574.80315
1580.013961	6966.5	1577.287066
1581.997376	7042.5	1579.778831
1583.995311	7028.0	1582.278481
1585.990502	7218.5	1579.778831
1588.007368	7164.0	1582.278481
1589.984623	7430.5	1582.278481
1592.034985	7283.0	1584.786054
1593.977062	7034.5	1587.301587
1596.023985	7323.5	1589.825119
1597.982451	7265.5	1594.896332
1600.011264	7332.0	1594.896332
1601.983384	7086.5	1600.0
1604.013627	6971.0	1597.444089
1605.974998	7155.0	1600.0
1608.006328	6980.5	1600.0
1609.947414	7105.5	1610.305958
1611.982316	7176.5	1605.136437
1613.924684	7291.5	1607.717042
1615.955818	6994.5	1610.305958
1617.935527	7052.5	1610.305958
1619.926915	7428.0	1612.903226
1621.922159	7210.0	1615.508885
1623.933401	7175.0	1623.376623
1625.950958	7273.0	1615.508885
1627.912845	7300.0	1620.745543
1629.935792	7282.5	1620.745543
1631.965105	6927.5	1628.664495
1633.965035	7016.5	1631.32137
1635.980579	7065.0	1633.986928
1637.992784	7385.0	1633.986928
1640.004028	7362.0	1636.661211
1642.026149	7372.0	1639.344262
1643.997854	7390.5	1639.344262
1646.057749	7657.0	1644.736842
1648.00602	7370.0	1644.736842
1650.059097	7160.0	1650.165017
1652.001028	7152.5	1647.446458
1654.035076	7096.5	1652.892562
1656.028615	7169.0	1655.629139
1658.048682	7074.0	1655.629139
1660.030418	7131.5	1655.629139
1662.020488	7039.5	1661.129568
1664.067116	6939.0	1661.129568
1666.010536	7295.0	1661.129568
1668.06367	7239.0	1666.666667
1670.044052	7229.5	1666.666667
1672.062132	7042.5	1669.449082
1674.044179	6940.5	1672.240803
1676.061831	7152.5	1672.240803
1678.041269	7575.5	1675.041876
1680.06067	7294.0	1675.041876
1682.048722	7129.0	1683.501684
1684.065023	7328.5	1683.501684
1686.084174	7155.5	1683.501684
1688.058874	7469.5	1683.501684
1690.093046	7158.0	1686.340641
1692.026191	7138.0	1692.047377
1694.077117	7032.5	1689.189189
1696.016515	6970.5	1692.047377
1698.07742	6950.5	1692.047377
1700.031485	6810.5	1694.915254
1702.062185	6719.5	1700.680272
1704.064056	7073.0	1700.680272
1706.064531	6866.0	1700.680272
1708.089546	6834.5	1700.680272
1710.068198	7146.5	1706.484642
1712.085147	7248.5	1703.577513
1714.033996	7085.0	1706.484642
1716.077692	7193.0	1712.328767
1718.05129	7144.5	1715.265866
1720.060498	7186.5	1715.265866
1722.091611	7236.0	1715.265866
1724.076994	7421.5	1718.213058
1726.094966	7315.0	1718.213058
1728.067497	7121.5	1721.170396
1730.053222	7359.0	1724.137931
1732.071415	7322.5	1724.137931
1734.052827	7154.0	1730.103806
1736.090314	7316.0	1730.103806
1738.05254	7035.0	1733.102253
1740.072495	6812.0	1739.130435
1742.055877	6986.0	1736.111111
1744.069032	7023.5	1739.130435
1746.067028	6697.5	1745.200698
1748.056162	6840.0	1742.160279
1750.08536	6986.5	1745.200698
1752.033936	6949.0	1751.313485
1754.079155	6810.0	1748.251748
1756.063159	6927.0	1751.313485
1760.09237	6753.0	1760.56338
1762.066411	6668.0	1757.469244
1764.081605	6846.0	1760.56338
1766.044336	7152.5	1760.56338
1768.066769	7118.0	1766.784452
1770.059375	7097.5	1766.784452
1772.068096	7169.5	1769.911504
1774.073827	7247.5	1769.911504
1776.037419	7071.0	1769.911504
1778.074598	6929.5	1773.049645
1780.057517	7020.5	1773.049645
1782.061696	7110.5	1776.198934
1784.081533	7214.0	1779.359431
1786.047575	6930.5	1782.531194
1788.075503	6813.0	1782.531194
1790.029535	7273.0	1785.714286
1792.06331	7098.0	1788.908766
1794.049568	7174.0	1785.714286
1796.084751	7328.0	1788.908766
1798.030797	7428.5	1792.114695
1800.08734	7258.0	1792.114695

# Sect01 Ion Source 		# s01_ion_source 		# m03_ao09_bl0 		# 10.000000 		# None 	
# Sect01 Ion Source 		# s01_ion_source 		# m03_ao09_bl0 		# 10000 		# None 	
# Sect01 Ion Source 		# s01_ion_source 		# m03_ao09_high 		# -6.999939 		# None 	
# Sect01 Ion Source 		# s01_ion_source 		# m03_ao09_nc 		# 0 		# None 	
# Sect01 Ion Source 		# s01_ion_source 		# m03_ao09_width 		# 100000 		# None 	
# Sect01 Ion Source 		# s01_ion_source 		# m03_ao10_end 		# 0.000000 		# None 	
# Sect01 Ion Source 		# s01_ion_source 		# m03_ao11_bl1 		# 0.000000 		# None 	
# Sect01 Ion Source 		# s01_ion_source 		# m03_ao14_src_float 		# 0.000000 		# None 	
# Sect01 Ion Source 		# s01_ion_source 		# m03_ao00_nc 		# -6.000000 		# None 	
# Sect01 Ion Source 		# s01_ion_source 		# m03_ao01_bq0 		# -9.900055 		# None 	
# Sect01 Ion Source 		# s01_ion_source 		# m03_ao02_nc 		# 0.000000 		# None 	
# Sect01 Ion Source 		# s01_ion_source 		# m03_ao03_bq5 		# -9.590179 		# None 	
# Sect01 Ion Source 		# s01_ion_source 		# m03_ao04_nc 		# 0.000000 		# None 	
# Sect01 Ion Source 		# s01_ion_source 		# m03_ao05_bq4 		# 0.219940 		# None 	
# Sect01 Ion Source 		# s01_ion_source 		# m03_ao06_bq3 		# -0.200012 		# None 	
# Sect01 Ion Source 		# s01_ion_source 		# m03_ao07_bq2 		# -0.139893 		# None 	
# Sect01 Ion Source 		# s01_ion_source 		# m03_ao08_bq1 		# -0.050110 		# None 	
# Sect01 Ion Source 		# s01_ion_source 		# m03_ao15_qd1_float 		# -1.499969 		# None 	
# Sect01 Ion Source 		# s01_ion_source 		# m03_a_nc 		# 0.000000 		# None 	
# Sect01 Ion Source 		# s01_ion_source 		# m03_b_nc 		# 0.000000 		# None 	
# Sect01 Ion Source 		# s01_ion_source 		# m03_c_nc 		# 0.000000 		# None 	
# Sect01 Ion Source 		# s01_ion_source 		# m04_ao00_b_outer 		# -9.579651 		# None 	
# Sect01 Ion Source 		# s01_ion_source 		# m04_ao01_b_in 		# -3.000061 		# None 	
# Sect01 Ion Source 		# s01_ion_source 		# m04_ao02_b_inner 		# 0.500031 		# None 	
# Sect01 Ion Source 		# s01_ion_source 		# m04_ao06_b_out 		# 0.000000 		# None 	
# Sect01 Ion Source 		# s01_ion_source 		# m04_ao03_se_delay 		# 10000 		# None 	
# Sect01 Ion Source 		# s01_ion_source 		# m04_ao03_se_high 		# 0.699982 		# None 	
# Sect01 Ion Source 		# s01_ion_source 		# m04_ao03_se_trap_in 		# 0.699982 		# None 	
# Sect01 Ion Source 		# s01_ion_source 		# m04_ao03_se_width 		# 0 		# None 	
# Sect01 Ion Source 		# s01_ion_source 		# m04_ao04_sa_delay 		# 1630000 		# None 	
# Sect01 Ion Source 		# s01_ion_source 		# m04_ao04_sa_high 		# -0.899994 		# None 	
# Sect01 Ion Source 		# s01_ion_source 		# m04_ao04_sa_trap_out 		# 1.600006 		# None 	
# Sect01 Ion Source 		# s01_ion_source 		# m04_ao04_sa_width 		# 5000 		# None 	
# Sect01 Ion Source 		# s01_ion_source 		# m04_ao05_trap_float 		# 0.489929 		# None 	
# Sect01 Ion Source 		# s01_ion_source 		# m04_ao07_bl4 		# -2.699982 		# None 	
# Sect01 Ion Source 		# s01_ion_source 		# m04_ao08_bl5 		# -2.820038 		# None 	
# Sect01 Ion Source 		# s01_ion_source 		# m03_ao13_reso 		# 1.999939 		# None 	
# Sect01 Ion Source 		# s01_ion_source 		# m04_ao09_qd2_float 		# -10.000000 		# None 	
# Sect01 Ion Source 		# s01_ion_source 		# m03_ao02_nc1 		# 0.000000 		# None 	
# Sect01 Ion Source 		# s01_ion_source 		# m03_ao02_nc2 		# 0 		# None 	
# Sect01 Ion Source 		# s01_ion_source 		# m03_ao02_nc3 		# 0.000000 		# None 	
# Sect01 Ion Source 		# s01_ion_source 		# m03_ao02_nc4 		# 0 		# None 	
# Sect01 Ion Source 		# s01_ion_source 		# m03_ao04_nc1 		# 0.000000 		# None 	
# Sect01 Ion Source 		# s01_ion_source 		# m03_ao04_nc2 		# 0 		# None 	
# Sect01 Ion Source 		# s01_ion_source 		# m03_ao04_nc3 		# 0.000610 		# None 	
# Sect01 Ion Source 		# s01_ion_source 		# m03_ao04_nc4 		# 0 		# None 	
# Ortec 996 Gate 		# test_ao00 		# m03_ao00_nc1 		# 0.000000 		# None 	
# Ortec 996 Gate 		# test_ao00 		# m03_ao00_nc2 		# 0 		# None 	
# Ortec 996 Gate 		# test_ao00 		# m03_ao00_nc3 		# 0.000610 		# None 	
# Ortec 996 Gate 		# test_ao00 		# m03_ao00_nc4 		# 0 		# None 	